Time,Displacement,Force
(s),(mm),(kN)
0,0,-0.0002
0.02,0.0005,0.0001
0.04,0.0031,0.0009
0.06,0.0079,0.0025
0.08,0.0115,0.0033
0.1,0.0156,0.0037
0.12,0.0208,0.0043
0.14,0.0265,0.0047
0.16,0.0322,0.0052
0.18,0.0377,0.0059
0.2,0.0428,0.0065
0.22,0.0478,0.0073
0.24,0.0528,0.0094
0.26,0.0578,0.0123
0.28,0.0629,0.0158
0.3,0.0679,0.0207
0.32,0.0729,0.0268
0.34,0.0779,0.0334
0.36,0.0829,0.0411
0.38,0.0879,0.0494
0.4,0.0929,0.0584
0.42,0.0979,0.0677
0.44,0.103,0.0774
0.46,0.108,0.0885
0.48,0.113,0.1004
0.5,0.118,0.1121
0.52,0.123,0.1254
0.54,0.1279,0.14
0.56,0.1329,0.1551
0.58,0.1379,0.1753
0.6,0.1429,0.2013
0.62,0.1479,0.2249
0.64,0.1529,0.2485
0.66,0.1579,0.2784
0.68,0.163,0.3126
0.7,0.1679,0.3525
0.72,0.1729,0.3986
0.74,0.1779,0.4477
0.76,0.1829,0.4979
0.78,0.1879,0.5493
0.8,0.1929,0.6011
0.82,0.1979,0.6526
0.84,0.2029,0.7028
0.86,0.2079,0.7522
0.88,0.2129,0.8012
0.9,0.2179,0.8494
0.92,0.2229,0.8961
0.94,0.2279,0.9419
0.96,0.2329,0.9868
0.98,0.2379,1.031
1,0.2429,1.0744
1.02,0.2479,1.117
1.04,0.2529,1.1589
1.06,0.2579,1.2
1.08,0.2629,1.2401
1.1,0.2679,1.2793
1.12,0.2729,1.3176
1.14,0.2779,1.3555
1.16,0.2829,1.3929
1.18,0.2879,1.4291
1.2,0.2929,1.4644
1.22,0.298,1.4988
1.24,0.303,1.5326
1.26,0.3079,1.5657
1.28,0.313,1.5982
1.3,0.318,1.6303
1.32,0.323,1.6614
1.34,0.328,1.6918
1.36,0.333,1.7218
1.38,0.338,1.7507
1.4,0.343,1.7785
1.42,0.348,1.805
1.44,0.353,1.8304
1.46,0.358,1.8541
1.48,0.3629,1.877
1.5,0.3679,1.8998
1.52,0.373,1.9226
1.54,0.378,1.9456
1.56,0.383,1.9688
1.58,0.388,1.9919
1.6,0.393,2.015
1.62,0.398,2.0378
1.64,0.4029,2.0607
1.66,0.408,2.0836
1.68,0.4129,2.1065
1.7,0.418,2.1293
1.72,0.423,2.1519
1.74,0.428,2.1744
1.76,0.4329,2.1971
1.78,0.4379,2.2194
1.8,0.4429,2.2418
1.82,0.448,2.2641
1.84,0.453,2.2863
1.86,0.458,2.3084
1.88,0.463,2.3306
1.9,0.468,2.3527
1.92,0.473,2.3745
1.94,0.478,2.3965
1.96,0.483,2.4182
1.98,0.488,2.4396
2,0.493,2.4614
2.02,0.498,2.483
2.04,0.503,2.5046
2.06,0.508,2.5255
2.08,0.513,2.5468
2.1,0.518,2.5677
2.12,0.523,2.5885
2.14,0.528,2.609
2.16,0.533,2.6292
2.18,0.538,2.6491
2.2,0.543,2.6689
2.22,0.548,2.6887
2.24,0.553,2.7089
2.26,0.558,2.7289
2.28,0.563,2.7492
2.3,0.568,2.7694
2.32,0.573,2.7896
2.34,0.5779,2.8096
2.36,0.583,2.8299
2.38,0.588,2.8502
2.4,0.593,2.8704
2.42,0.598,2.8904
2.44,0.603,2.9109
2.46,0.608,2.9312
2.48,0.613,2.9515
2.5,0.618,2.9719
2.52,0.623,2.9922
2.54,0.6279,3.0128
2.56,0.6329,3.0333
2.58,0.6379,3.0539
2.6,0.643,3.0745
2.62,0.648,3.0951
2.64,0.653,3.1157
2.66,0.6579,3.1362
2.68,0.663,3.1571
2.7,0.668,3.1778
2.72,0.673,3.1985
2.74,0.6779,3.2194
2.76,0.6829,3.24
2.78,0.6879,3.2608
2.8,0.693,3.2818
2.82,0.698,3.3027
2.84,0.703,3.3234
2.86,0.708,3.3442
2.88,0.713,3.3651
2.9,0.718,3.3859
2.92,0.723,3.4066
2.94,0.728,3.4275
2.96,0.733,3.4484
2.98,0.738,3.4691
3,0.743,3.49
3.02,0.748,3.5107
3.04,0.753,3.5315
3.06,0.758,3.5524
3.08,0.763,3.5731
3.1,0.768,3.5938
3.12,0.773,3.6143
3.14,0.778,3.635
3.16,0.783,3.6558
3.18,0.788,3.6764
3.2,0.7929,3.6967
3.22,0.798,3.717
3.24,0.803,3.7374
3.26,0.808,3.7579
3.28,0.813,3.7782
3.3,0.818,3.7984
3.32,0.823,3.8186
3.34,0.828,3.8389
3.36,0.833,3.859
3.38,0.838,3.8793
3.4,0.8429,3.8994
3.42,0.848,3.9193
3.44,0.853,3.9392
3.46,0.858,3.959
3.48,0.863,3.9788
3.5,0.868,3.9983
3.52,0.8729,4.0178
3.54,0.878,4.0374
3.56,0.883,4.0567
3.58,0.888,4.0759
3.6,0.893,4.0953
3.62,0.898,4.1144
3.64,0.903,4.1329
3.66,0.9079,4.1514
3.68,0.9129,4.1698
3.7,0.9179,4.1878
3.72,0.9229,4.2061
3.74,0.928,4.2242
3.76,0.933,4.2422
3.78,0.938,4.2598
3.8,0.943,4.277
3.82,0.9479,4.2937
3.84,0.9529,4.3106
3.86,0.958,4.3272
3.88,0.963,4.3436
3.9,0.968,4.3598
3.92,0.973,4.3755
3.94,0.978,4.3909
3.96,0.983,4.4062
3.98,0.988,4.4211
4,0.993,4.4357
4.02,0.998,4.4499
4.04,1.003,4.4641
4.06,1.008,4.4778
4.08,1.013,4.4911
4.1,1.018,4.5041
4.12,1.023,4.5172
4.14,1.028,4.5297
4.16,1.033,4.5421
4.18,1.038,4.5542
4.2,1.043,4.5656
4.22,1.048,4.5769
4.24,1.053,4.588
4.26,1.0579,4.5986
4.28,1.0629,4.6088
4.3,1.0679,4.6188
4.32,1.0729,4.6285
4.34,1.0779,4.638
4.36,1.0829,4.6471
4.38,1.088,4.6559
4.4,1.093,4.6649
4.42,1.098,4.6732
4.44,1.103,4.6808
4.46,1.108,4.6881
4.48,1.113,4.6953
4.5,1.118,4.7025
4.52,1.123,4.7093
4.54,1.128,4.7156
4.56,1.133,4.7221
4.58,1.138,4.7279
4.6,1.143,4.7335
4.62,1.148,4.739
4.64,1.153,4.7441
4.66,1.158,4.7493
4.68,1.163,4.7543
4.7,1.168,4.7587
4.72,1.173,4.7631
4.74,1.178,4.7673
4.76,1.183,4.7716
4.78,1.188,4.7759
4.8,1.193,4.7795
4.82,1.198,4.7832
4.84,1.203,4.7868
4.86,1.208,4.7905
4.88,1.213,4.7936
4.9,1.218,4.7967
4.92,1.223,4.7997
4.94,1.228,4.8029
4.96,1.233,4.8059
4.98,1.238,4.8086
5,1.243,4.8117
5.02,1.248,4.8145
5.04,1.253,4.8169
5.06,1.258,4.8193
5.08,1.263,4.8218
5.1,1.268,4.8245
5.12,1.273,4.8273
5.14,1.278,4.8298
5.16,1.283,4.8319
5.18,1.288,4.8341
5.2,1.293,4.8365
5.22,1.298,4.8389
5.24,1.3029,4.8409
5.26,1.308,4.8433
5.28,1.313,4.8454
5.3,1.318,4.8476
5.32,1.323,4.8498
5.34,1.328,4.8519
5.36,1.333,4.854
5.38,1.338,4.856
5.4,1.343,4.858
5.42,1.348,4.86
5.44,1.353,4.8619
5.46,1.358,4.8639
5.48,1.363,4.8658
5.5,1.368,4.8678
5.52,1.373,4.8698
5.54,1.3779,4.8717
5.56,1.3829,4.8736
5.58,1.3879,4.8753
5.6,1.3929,4.8776
5.62,1.398,4.8799
5.64,1.403,4.8819
5.66,1.408,4.8835
5.68,1.413,4.885
5.7,1.418,4.8866
5.72,1.423,4.8883
5.74,1.428,4.8903
5.76,1.433,4.8924
5.78,1.438,4.8941
5.8,1.443,4.8958
5.82,1.4481,4.8975
5.84,1.453,4.8993
5.86,1.458,4.9013
5.88,1.463,4.9029
5.9,1.468,4.9046
5.92,1.473,4.9064
5.94,1.478,4.9083
5.96,1.483,4.9102
5.98,1.488,4.9117
6,1.493,4.9135
6.02,1.498,4.9153
6.04,1.503,4.9173
6.06,1.508,4.919
6.08,1.513,4.9204
6.1,1.518,4.9219
6.12,1.523,4.9237
6.14,1.528,4.9255
6.16,1.533,4.9274
6.18,1.538,4.9293
6.2,1.543,4.9312
6.22,1.548,4.9327
6.24,1.553,4.9342
6.26,1.558,4.9359
6.28,1.563,4.9376
6.3,1.568,4.9392
6.32,1.573,4.941
6.34,1.578,4.9425
6.36,1.583,4.9443
6.38,1.588,4.9459
6.4,1.593,4.9475
6.42,1.598,4.9491
6.44,1.603,4.9507
6.46,1.608,4.9524
6.48,1.613,4.9539
6.5,1.6179,4.9555
6.52,1.623,4.9572
6.54,1.628,4.959
6.56,1.633,4.9607
6.58,1.638,4.9623
6.6,1.643,4.9639
6.62,1.648,4.9657
6.64,1.653,4.9675
6.66,1.658,4.969
6.68,1.663,4.9705
6.7,1.668,4.9719
6.72,1.673,4.9734
6.74,1.678,4.9751
6.76,1.683,4.9767
6.78,1.688,4.978
6.8,1.693,4.9798
6.82,1.698,4.9815
6.84,1.703,4.9831
6.86,1.708,4.9845
6.88,1.713,4.9859
6.9,1.718,4.9874
6.92,1.723,4.989
6.94,1.728,4.9907
6.96,1.733,4.9922
6.98,1.738,4.9939
7,1.743,4.9957
7.02,1.748,4.9974
7.04,1.753,4.9988
7.06,1.758,5
7.08,1.763,5.0015
7.1,1.768,5.0031
7.12,1.773,5.0046
7.14,1.778,5.0062
7.16,1.783,5.0075
7.18,1.788,5.0092
7.2,1.793,5.0107
7.22,1.798,5.0123
7.24,1.803,5.0136
7.26,1.808,5.0151
7.28,1.813,5.0165
7.3,1.818,5.018
7.32,1.823,5.0194
7.34,1.828,5.0208
7.36,1.833,5.0223
7.38,1.838,5.0239
7.4,1.843,5.0253
7.42,1.848,5.0265
7.44,1.8529,5.0279
7.46,1.858,5.0296
7.48,1.863,5.0313
7.5,1.868,5.0329
7.52,1.873,5.0345
7.54,1.878,5.0358
7.56,1.883,5.037
7.58,1.888,5.0385
7.6,1.893,5.0399
7.62,1.898,5.041
7.64,1.903,5.0425
7.66,1.908,5.0442
7.68,1.913,5.0455
7.7,1.918,5.047
7.72,1.923,5.0485
7.74,1.928,5.0498
7.76,1.933,5.0509
7.78,1.938,5.0522
7.8,1.943,5.0535
7.82,1.948,5.0548
7.84,1.953,5.0561
7.86,1.958,5.0576
7.88,1.963,5.0591
7.9,1.968,5.0605
7.92,1.973,5.062
7.94,1.978,5.0632
7.96,1.983,5.0646
7.98,1.988,5.0658
8,1.993,5.067
8.02,1.998,5.0681
8.04,2.003,5.0695
8.06,2.008,5.0709
8.08,2.013,5.0722
8.1,2.018,5.0735
8.12,2.023,5.0746
8.14,2.028,5.0757
8.16,2.033,5.077
8.18,2.038,5.0784
8.2,2.043,5.0799
8.22,2.048,5.0811
8.24,2.053,5.0823
8.26,2.058,5.0837
8.28,2.063,5.0851
8.3,2.068,5.0864
8.32,2.073,5.0878
8.34,2.078,5.0888
8.36,2.083,5.0898
8.38,2.088,5.0912
8.4,2.093,5.0925
8.42,2.098,5.0938
8.44,2.103,5.095
8.46,2.108,5.0962
8.48,2.113,5.0973
8.5,2.118,5.0985
8.52,2.123,5.1
8.54,2.128,5.1012
8.56,2.133,5.1022
8.58,2.138,5.1035
8.6,2.143,5.1047
8.62,2.148,5.1056
8.64,2.153,5.1068
8.66,2.158,5.1079
8.68,2.163,5.1091
8.7,2.168,5.1102
8.72,2.173,5.1114
8.74,2.178,5.1127
8.76,2.183,5.1138
8.78,2.188,5.1151
8.8,2.193,5.1163
8.82,2.198,5.1175
8.84,2.203,5.1185
8.86,2.208,5.1196
8.88,2.213,5.1204
8.9,2.218,5.1217
8.92,2.223,5.1227
8.94,2.228,5.1238
8.96,2.233,5.1249
8.98,2.238,5.1261
9,2.243,5.1272
9.02,2.248,5.1281
9.04,2.253,5.1292
9.06,2.258,5.1301
9.08,2.263,5.1314
9.1,2.268,5.1325
9.12,2.273,5.1334
9.14,2.278,5.1346
9.16,2.283,5.1358
9.18,2.288,5.1369
9.2,2.293,5.1377
9.22,2.298,5.1389
9.24,2.303,5.1401
9.26,2.308,5.141
9.28,2.313,5.1419
9.3,2.318,5.1429
9.32,2.323,5.1439
9.34,2.328,5.145
9.36,2.333,5.1458
9.38,2.338,5.1468
9.4,2.343,5.1478
9.42,2.348,5.1489
9.44,2.353,5.15
9.46,2.358,5.151
9.48,2.363,5.1521
9.5,2.368,5.1531
9.52,2.373,5.1541
9.54,2.378,5.1549
9.56,2.383,5.1558
9.58,2.388,5.1568
9.6,2.393,5.1577
9.62,2.398,5.1585
9.64,2.403,5.1596
9.66,2.408,5.1606
9.68,2.413,5.1615
9.7,2.418,5.1624
9.72,2.423,5.1633
9.74,2.428,5.1641
9.76,2.433,5.1651
9.78,2.438,5.166
9.8,2.443,5.167
9.82,2.448,5.1678
9.84,2.453,5.1687
9.86,2.458,5.1695
9.88,2.463,5.1704
9.9,2.468,5.1712
9.92,2.473,5.1717
9.94,2.478,5.1726
9.96,2.483,5.1735
9.98,2.488,5.1744
10,2.493,5.1752
10.02,2.498,5.1758
10.04,2.503,5.1769
10.06,2.508,5.1776
10.08,2.513,5.1783
10.1,2.518,5.1792
10.12,2.523,5.1801
10.14,2.528,5.181
10.16,2.533,5.1821
10.18,2.538,5.1826
10.2,2.543,5.1834
10.22,2.548,5.1844
10.24,2.553,5.1852
10.26,2.558,5.186
10.28,2.563,5.187
10.3,2.568,5.1879
10.32,2.573,5.189
10.34,2.578,5.1897
10.36,2.583,5.1904
10.38,2.588,5.1911
10.4,2.593,5.1917
10.42,2.598,5.1926
10.44,2.603,5.1935
10.46,2.608,5.1942
10.48,2.613,5.1953
10.5,2.618,5.1958
10.52,2.623,5.1964
10.54,2.628,5.1972
10.56,2.633,5.198
10.58,2.638,5.1987
10.6,2.643,5.1996
10.62,2.648,5.2003
10.64,2.653,5.201
10.66,2.658,5.2018
10.68,2.663,5.2027
10.7,2.668,5.2031
10.72,2.673,5.2039
10.74,2.6779,5.2049
10.76,2.683,5.2057
10.78,2.688,5.2062
10.8,2.693,5.2066
10.82,2.698,5.2072
10.84,2.703,5.2078
10.86,2.7079,5.2083
10.88,2.7129,5.209
10.9,2.7179,5.2099
10.92,2.723,5.2104
10.94,2.728,5.2109
10.96,2.733,5.2117
10.98,2.738,5.2123
11,2.743,5.2129
11.02,2.748,5.2134
11.04,2.753,5.214
11.06,2.758,5.2149
11.08,2.7631,5.2154
11.1,2.768,5.2159
11.12,2.773,5.2162
11.14,2.778,5.2167
11.16,2.783,5.217
11.18,2.788,5.2176
11.2,2.793,5.2182
11.22,2.798,5.2187
11.24,2.803,5.2192
11.26,2.808,5.2198
11.28,2.813,5.2202
11.3,2.818,5.2208
11.32,2.823,5.2214
11.34,2.828,5.222
11.36,2.833,5.2226
11.38,2.838,5.223
11.4,2.843,5.2234
11.42,2.848,5.2239
11.44,2.853,5.2246
11.46,2.858,5.2253
11.48,2.863,5.2261
11.5,2.868,5.2268
11.52,2.873,5.2274
11.54,2.878,5.2283
11.56,2.883,5.2293
11.58,2.888,5.23
11.6,2.893,5.2307
11.62,2.898,5.2313
11.64,2.903,5.2318
11.66,2.908,5.2323
11.68,2.913,5.2332
11.7,2.918,5.2341
11.72,2.923,5.2351
11.74,2.928,5.2358
11.76,2.933,5.2366
11.78,2.938,5.2371
11.8,2.943,5.2377
11.82,2.948,5.2385
11.84,2.953,5.2392
11.86,2.958,5.24
11.88,2.963,5.2408
11.9,2.968,5.2415
11.92,2.973,5.2419
11.94,2.978,5.2425
11.96,2.983,5.2434
11.98,2.988,5.2438
12,2.993,5.2441
12.02,2.998,5.2444
12.04,3.003,5.2449
12.06,3.008,5.2451
12.08,3.013,5.2453
12.1,3.018,5.2454
12.12,3.023,5.2457
12.14,3.028,5.246
12.16,3.033,5.246
12.18,3.038,5.2459
12.2,3.043,5.2459
12.22,3.048,5.2461
12.24,3.053,5.246
12.26,3.058,5.2459
12.28,3.063,5.246
12.3,3.068,5.2458
12.32,3.073,5.2462
12.34,3.078,5.2465
12.36,3.083,5.2464
12.38,3.088,5.2462
12.4,3.093,5.2462
12.42,3.098,5.2464
12.44,3.103,5.2466
12.46,3.108,5.2468
12.48,3.113,5.2471
12.5,3.118,5.2475
12.52,3.123,5.2475
12.54,3.128,5.2476
12.56,3.133,5.2479
12.58,3.138,5.2482
12.6,3.143,5.2484
12.62,3.148,5.2486
12.64,3.153,5.2489
12.66,3.158,5.2495
12.68,3.1631,5.2502
12.7,3.168,5.2506
12.72,3.173,5.2509
12.74,3.178,5.251
12.76,3.183,5.2514
12.78,3.1879,5.252
12.8,3.193,5.253
12.82,3.198,5.2536
12.84,3.203,5.254
12.86,3.208,5.2544
12.88,3.213,5.2546
12.9,3.218,5.2551
12.92,3.223,5.2552
12.94,3.228,5.2555
12.96,3.233,5.2558
12.98,3.238,5.2561
13,3.243,5.2564
13.02,3.248,5.2569
13.04,3.253,5.2572
13.06,3.258,5.2574
13.08,3.263,5.2578
13.1,3.268,5.2582
13.12,3.273,5.2583
13.14,3.278,5.258
13.16,3.283,5.258
13.18,3.288,5.2583
13.2,3.293,5.2587
13.22,3.298,5.2588
13.24,3.303,5.2585
13.26,3.308,5.2584
13.28,3.313,5.2584
13.3,3.318,5.2583
13.32,3.323,5.2582
13.34,3.328,5.2584
13.36,3.333,5.2585
13.38,3.338,5.2587
13.4,3.343,5.2589
13.42,3.348,5.2593
13.44,3.353,5.2598
13.46,3.358,5.2604
13.48,3.363,5.2609
13.5,3.368,5.2614
13.52,3.373,5.2622
13.54,3.378,5.2629
13.56,3.383,5.2637
13.58,3.388,5.2643
13.6,3.393,5.2651
13.62,3.398,5.2658
13.64,3.403,5.2666
13.66,3.408,5.2673
13.68,3.413,5.2679
13.7,3.418,5.2685
13.72,3.423,5.269
13.74,3.428,5.2693
13.76,3.433,5.2696
13.78,3.438,5.2699
13.8,3.443,5.2703
13.82,3.448,5.2708
13.84,3.453,5.2712
13.86,3.458,5.2715
13.88,3.463,5.2718
13.9,3.468,5.2719
13.92,3.4729,5.2722
13.94,3.478,5.2726
13.96,3.483,5.2727
13.98,3.488,5.2729
14,3.493,5.2731
14.02,3.498,5.2729
14.04,3.503,5.273
14.06,3.508,5.2731
14.08,3.513,5.2734
14.1,3.518,5.2733
14.12,3.523,5.2731
14.14,3.528,5.2731
14.16,3.533,5.2735
14.18,3.538,5.2734
14.2,3.543,5.2733
14.22,3.548,5.2731
14.24,3.553,5.2732
14.26,3.558,5.2733
14.28,3.563,5.2733
14.3,3.568,5.2733
14.32,3.573,5.2733
14.34,3.578,5.2731
14.36,3.583,5.2729
14.38,3.588,5.273
14.4,3.593,5.2731
14.42,3.598,5.2728
14.44,3.603,5.2727
14.46,3.608,5.2728
14.48,3.613,5.2727
14.5,3.618,5.2723
14.52,3.623,5.2724
14.54,3.628,5.2724
14.56,3.633,5.2724
14.58,3.638,5.2724
14.6,3.643,5.2722
14.62,3.648,5.2721
14.64,3.653,5.2718
14.66,3.658,5.2716
14.68,3.663,5.2716
14.7,3.6679,5.2715
14.72,3.673,5.2714
14.74,3.678,5.2716
14.76,3.683,5.2712
14.78,3.688,5.2712
14.8,3.693,5.271
14.82,3.698,5.2708
14.84,3.703,5.2706
14.86,3.708,5.2705
14.88,3.713,5.2703
14.9,3.718,5.2704
14.92,3.723,5.2702
14.94,3.728,5.2701
14.96,3.733,5.2701
14.98,3.738,5.2704
15,3.743,5.2704
15.02,3.748,5.2703
15.04,3.753,5.2701
15.06,3.758,5.27
15.08,3.763,5.2695
15.1,3.768,5.2694
15.12,3.773,5.2697
15.14,3.778,5.27
15.16,3.783,5.2696
15.18,3.788,5.2696
15.2,3.793,5.2695
15.22,3.798,5.2695
15.24,3.803,5.2694
15.26,3.808,5.2696
15.28,3.813,5.2694
15.3,3.818,5.2693
15.32,3.823,5.269
15.34,3.828,5.269
15.36,3.833,5.2689
15.38,3.838,5.2686
15.4,3.843,5.2681
15.42,3.848,5.268
15.44,3.853,5.2677
15.46,3.858,5.2673
15.48,3.863,5.2669
15.5,3.868,5.2665
15.52,3.873,5.2659
15.54,3.878,5.2653
15.56,3.883,5.2647
15.58,3.888,5.264
15.6,3.893,5.2631
15.62,3.898,5.2622
15.64,3.903,5.2616
15.66,3.908,5.2608
15.68,3.913,5.2599
15.7,3.918,5.259
15.72,3.923,5.2581
15.74,3.928,5.2569
15.76,3.933,5.256
15.78,3.938,5.255
15.8,3.943,5.2541
15.82,3.948,5.253
15.84,3.953,5.252
15.86,3.958,5.2507
15.88,3.963,5.2497
15.9,3.968,5.2486
15.92,3.973,5.2475
15.94,3.978,5.2462
15.96,3.983,5.2449
15.98,3.988,5.2436
16,3.993,5.2423
16.02,3.998,5.2409
16.04,4.003,5.24
16.06,4.008,5.2384
16.08,4.013,5.2372
16.1,4.018,5.2359
16.12,4.023,5.2347
16.14,4.028,5.2332
16.16,4.033,5.2318
16.18,4.038,5.2302
16.2,4.043,5.2287
16.22,4.048,5.2271
16.24,4.053,5.2255
16.26,4.058,5.2238
16.28,4.063,5.2224
16.3,4.068,5.2209
16.32,4.073,5.2195
16.34,4.078,5.2181
16.36,4.083,5.2162
16.38,4.088,5.2144
16.4,4.093,5.2126
16.42,4.098,5.2107
16.44,4.103,5.209
16.46,4.108,5.2071
16.48,4.113,5.2052
16.5,4.118,5.2033
16.52,4.123,5.2013
16.54,4.128,5.1996
16.56,4.133,5.1978
16.58,4.138,5.196
16.6,4.143,5.194
16.62,4.148,5.1919
16.64,4.153,5.19
16.66,4.158,5.188
16.68,4.163,5.1858
16.7,4.168,5.1837
16.72,4.173,5.1815
16.74,4.178,5.1799
16.76,4.183,5.1777
16.78,4.188,5.1755
16.8,4.193,5.1735
16.82,4.198,5.1714
16.84,4.203,5.1693
16.86,4.208,5.1672
16.88,4.213,5.1651
16.9,4.218,5.163
16.92,4.223,5.1606
16.94,4.228,5.1585
16.96,4.233,5.1563
16.98,4.238,5.1543
17,4.243,5.1519
17.02,4.248,5.1496
17.04,4.253,5.1472
17.06,4.258,5.1452
17.08,4.263,5.1432
17.1,4.268,5.1411
17.12,4.273,5.1387
17.14,4.278,5.1363
17.16,4.283,5.1341
17.18,4.288,5.1319
17.2,4.293,5.1298
17.22,4.298,5.1275
17.24,4.303,5.125
17.26,4.308,5.1227
17.28,4.313,5.1201
17.3,4.318,5.1178
17.32,4.3229,5.1154
17.34,4.328,5.113
17.36,4.333,5.1109
17.38,4.338,5.1085
17.4,4.343,5.1059
17.42,4.348,5.1035
17.44,4.353,5.1015
17.46,4.358,5.0993
17.48,4.363,5.0967
17.5,4.368,5.0941
17.52,4.373,5.0917
17.54,4.378,5.0893
17.56,4.383,5.0872
17.58,4.388,5.0846
17.6,4.393,5.0821
17.62,4.398,5.0796
17.64,4.403,5.0773
17.66,4.408,5.0749
17.68,4.413,5.0724
17.7,4.418,5.0699
17.72,4.423,5.0675
17.74,4.428,5.065
17.76,4.433,5.0626
17.78,4.438,5.0602
17.8,4.443,5.0578
17.82,4.448,5.0551
17.84,4.453,5.0527
17.86,4.458,5.0502
17.88,4.463,5.0479
17.9,4.468,5.0455
17.92,4.473,5.0429
17.94,4.478,5.0404
17.96,4.483,5.038
17.98,4.488,5.0355
18,4.493,5.0329
18.02,4.498,5.0305
18.04,4.503,5.0283
18.06,4.508,5.0258
18.08,4.513,5.0231
18.1,4.518,5.0207
18.12,4.523,5.0183
18.14,4.528,5.0156
18.16,4.533,5.0131
18.18,4.538,5.0104
18.2,4.543,5.0078
18.22,4.548,5.0052
18.24,4.553,5.0029
18.26,4.558,5.0006
18.28,4.563,4.9981
18.3,4.568,4.9953
18.32,4.573,4.9926
18.34,4.578,4.99
18.36,4.583,4.9876
18.38,4.588,4.9852
18.4,4.593,4.9827
18.42,4.598,4.9803
18.44,4.603,4.9776
18.46,4.608,4.9749
18.48,4.613,4.9723
18.5,4.618,4.9695
18.52,4.623,4.9669
18.54,4.628,4.9645
18.56,4.633,4.9622
18.58,4.638,4.9596
18.6,4.643,4.9571
18.62,4.648,4.9546
18.64,4.653,4.9516
18.66,4.658,4.949
18.68,4.663,4.9465
18.7,4.668,4.9441
18.72,4.673,4.9414
18.74,4.678,4.9388
18.76,4.683,4.9364
18.78,4.688,4.9338
18.8,4.693,4.9312
18.82,4.698,4.9282
18.84,4.703,4.9254
18.86,4.708,4.9231
18.88,4.713,4.9204
18.9,4.718,4.9178
18.92,4.723,4.9151
18.94,4.728,4.9124
18.96,4.733,4.9097
18.98,4.738,4.9074
19,4.743,4.9048
19.02,4.748,4.9019
19.04,4.753,4.899
19.06,4.758,4.8963
19.08,4.763,4.8938
19.1,4.768,4.8913
19.12,4.773,4.8887
19.14,4.778,4.886
19.16,4.783,4.8833
19.18,4.788,4.8806
19.2,4.793,4.8778
19.22,4.798,4.8751
19.24,4.803,4.8722
19.26,4.808,4.8693
19.28,4.813,4.8667
19.3,4.818,4.8645
19.32,4.823,4.8617
19.34,4.828,4.8588
19.36,4.833,4.8559
19.38,4.838,4.8529
19.4,4.843,4.8502
19.42,4.848,4.8475
19.44,4.853,4.8448
19.46,4.858,4.8419
19.48,4.863,4.8391
19.5,4.868,4.8364
19.52,4.873,4.8335
19.54,4.878,4.8305
19.56,4.883,4.8278
19.58,4.888,4.8254
19.6,4.893,4.8225
19.62,4.898,4.8197
19.64,4.903,4.8167
19.66,4.908,4.814
19.68,4.913,4.8111
19.7,4.918,4.8082
19.72,4.923,4.8053
19.74,4.928,4.8023
19.76,4.933,4.7994
19.78,4.938,4.7965
19.8,4.943,4.7938
19.82,4.948,4.791
19.84,4.953,4.7882
19.86,4.958,4.785
19.88,4.963,4.7821
19.9,4.968,4.7791
19.92,4.973,4.7762
19.94,4.978,4.7734
19.96,4.983,4.7706
19.98,4.988,4.7676
20,4.993,4.7643
20.02,4.998,4.7612
20.04,5.003,4.7583
20.06,5.008,4.7554
20.08,5.013,4.7524
20.1,5.018,4.7495
20.12,5.023,4.7465
20.14,5.028,4.7435
20.16,5.033,4.7402
20.18,5.038,4.7372
20.2,5.043,4.7346
20.22,5.048,4.7313
20.24,5.053,4.7282
20.26,5.058,4.7252
20.28,5.063,4.7221
20.3,5.068,4.7191
20.32,5.073,4.7157
20.34,5.078,4.7125
20.36,5.083,4.7096
20.38,5.088,4.7065
20.4,5.093,4.7033
20.42,5.098,4.7
20.44,5.103,4.6968
20.46,5.108,4.6937
20.48,5.113,4.6903
20.5,5.118,4.687
20.52,5.123,4.6838
20.54,5.128,4.6808
20.56,5.133,4.6777
20.58,5.138,4.6745
20.6,5.143,4.6713
20.62,5.148,4.6678
20.64,5.153,4.6644
20.66,5.158,4.661
20.68,5.163,4.6577
20.7,5.168,4.6542
20.72,5.173,4.6509
20.74,5.178,4.6476
20.76,5.183,4.6443
20.78,5.188,4.641
20.8,5.193,4.6378
20.82,5.198,4.6346
20.84,5.203,4.6311
20.86,5.208,4.6273
20.88,5.213,4.6236
20.9,5.218,4.6205
20.92,5.223,4.617
20.94,5.228,4.6137
20.96,5.233,4.6102
20.98,5.238,4.6067
21,5.243,4.6033
21.02,5.248,4.5995
21.04,5.253,4.5959
21.06,5.258,4.5923
21.08,5.263,4.5888
21.1,5.268,4.5852
21.12,5.273,4.5814
21.14,5.278,4.5777
21.16,5.283,4.5742
21.18,5.288,4.5708
21.2,5.293,4.5669
21.22,5.298,4.5631
21.24,5.303,4.5594
21.26,5.308,4.5559
21.28,5.313,4.5523
21.3,5.318,4.5485
21.32,5.323,4.5449
21.34,5.328,4.541
21.36,5.333,4.5372
21.38,5.338,4.5335
21.4,5.3429,4.5296
21.42,5.348,4.5255
21.44,5.353,4.5219
21.46,5.358,4.5183
21.48,5.363,4.5145
21.5,5.368,4.5103
21.52,5.373,4.5065
21.54,5.378,4.5027
21.56,5.383,4.4988
21.58,5.388,4.4947
21.6,5.393,4.4908
21.62,5.398,4.4868
21.64,5.403,4.4828
21.66,5.408,4.4786
21.68,5.413,4.4745
21.7,5.418,4.4704
21.72,5.4229,4.4665
21.74,5.428,4.4624
21.76,5.433,4.4583
21.78,5.438,4.454
21.8,5.443,4.4496
21.82,5.448,4.4455
21.84,5.453,4.4413
21.86,5.458,4.4371
21.88,5.463,4.4329
21.9,5.468,4.4288
21.92,5.473,4.4244
21.94,5.478,4.4202
21.96,5.483,4.4158
21.98,5.488,4.4116
22,5.493,4.4072
22.02,5.498,4.4028
22.04,5.503,4.3983
22.06,5.508,4.3938
22.08,5.513,4.3896
22.1,5.518,4.385
22.12,5.523,4.3806
22.14,5.528,4.3762
22.16,5.533,4.3717
22.18,5.538,4.3672
22.2,5.543,4.3626
22.22,5.548,4.358
22.24,5.553,4.3535
22.26,5.558,4.3488
22.28,5.563,4.3442
22.3,5.568,4.3396
22.32,5.573,4.3352
22.34,5.578,4.3301
22.36,5.583,4.3254
22.38,5.588,4.3206
22.4,5.593,4.316
22.42,5.598,4.3111
22.44,5.603,4.3063
22.46,5.608,4.3014
22.48,5.613,4.2966
22.5,5.618,4.292
22.52,5.623,4.287
22.54,5.628,4.282
22.56,5.633,4.277
22.58,5.638,4.2717
22.6,5.643,4.2666
22.62,5.648,4.2618
22.64,5.653,4.2568
22.66,5.658,4.2516
22.68,5.663,4.2463
22.7,5.668,4.241
22.72,5.673,4.2359
22.74,5.678,4.231
22.76,5.683,4.2258
22.78,5.688,4.2204
22.8,5.693,4.215
22.82,5.698,4.2098
22.84,5.703,4.2045
22.86,5.708,4.199
22.88,5.713,4.1935
22.9,5.718,4.188
22.92,5.723,4.1825
22.94,5.728,4.1771
22.96,5.733,4.172
22.98,5.738,4.1664
23,5.743,4.1606
23.02,5.748,4.1551
23.04,5.753,4.1496
23.06,5.758,4.1441
23.08,5.763,4.1384
23.1,5.768,4.1326
23.12,5.773,4.1266
23.14,5.778,4.1212
23.16,5.783,4.116
23.18,5.788,4.11
23.2,5.793,4.1039
23.22,5.798,4.0979
23.24,5.803,4.092
23.26,5.808,4.0861
23.28,5.813,4.0801
23.3,5.818,4.0742
23.32,5.823,4.0679
23.34,5.828,4.0616
23.36,5.833,4.0552
23.38,5.838,4.0493
23.4,5.843,4.0431
23.42,5.848,4.0368
23.44,5.853,4.0308
23.46,5.858,4.0246
23.48,5.863,4.0181
23.5,5.868,4.0118
23.52,5.873,4.0054
23.54,5.878,3.9989
23.56,5.883,3.9925
23.58,5.888,3.9859
23.6,5.893,3.9793
23.62,5.898,3.9728
23.64,5.903,3.966
23.66,5.908,3.9592
23.68,5.913,3.9526
23.7,5.918,3.946
23.72,5.923,3.9392
23.74,5.928,3.9324
23.76,5.933,3.9254
23.78,5.938,3.9185
23.8,5.943,3.9116
23.82,5.948,3.9046
23.84,5.953,3.8975
23.86,5.958,3.8906
23.88,5.963,3.8835
23.9,5.968,3.8762
23.92,5.973,3.8688
23.94,5.978,3.8615
23.96,5.983,3.8545
23.98,5.988,3.847
24,5.993,3.8396
24.02,5.998,3.832
24.04,6.003,3.8244
24.06,6.008,3.8172
24.08,6.013,3.8094
24.1,6.018,3.8016
24.12,6.023,3.7938
24.14,6.028,3.786
24.16,6.033,3.7781
24.18,6.038,3.7701
24.2,6.043,3.7622
24.22,6.048,3.7541
24.24,6.053,3.746
24.26,6.058,3.7378
24.28,6.063,3.7291
24.3,6.068,3.7208
24.32,6.073,3.7123
24.34,6.078,3.7038
24.36,6.083,3.6953
24.38,6.088,3.6865
24.4,6.093,3.6776
24.42,6.098,3.6684
24.44,6.103,3.6593
24.46,6.108,3.6503
24.48,6.113,3.6412
24.5,6.118,3.6319
24.52,6.123,3.622
24.54,6.128,3.6122
24.56,6.133,3.6023
24.58,6.138,3.5922
24.6,6.143,3.5816
24.62,6.148,3.5702
24.64,6.153,3.5573
24.66,6.158,3.5405
24.68,6.163,3.4998
24.7,6.1681,3.3991
24.711,6.1709,3.2725
24.721,6.1734,3.142
24.733,6.1764,3.0103
24.752,6.1812,2.8811
24.772,6.1861,2.8106
24.792,6.1911,2.7598
24.812,6.196,2.7061
24.832,6.201,2.6467
24.852,6.2061,2.5886
24.872,6.2111,2.5394
24.892,6.216,2.4993
24.912,6.221,2.4604
24.932,6.226,2.4192
24.952,6.231,2.378
24.972,6.236,2.3353
24.992,6.241,2.2879
25.012,6.2461,2.233
25.032,6.251,2.1891
25.052,6.256,2.1594
25.072,6.261,2.1357
25.092,6.266,2.1122
25.112,6.271,2.0867
25.132,6.276,2.0613
25.152,6.281,2.0354
25.172,6.286,2.0066
25.192,6.291,1.9737
25.212,6.296,1.9408
25.232,6.301,1.9112
25.252,6.306,1.8843
25.272,6.311,1.8571
25.292,6.316,1.8297
25.312,6.321,1.8031
25.332,6.326,1.7761
25.352,6.331,1.7475
25.372,6.336,1.7192
25.392,6.341,1.6925
25.412,6.346,1.6672
25.432,6.351,1.6438
25.452,6.356,1.6233
25.472,6.361,1.604
25.492,6.366,1.5853
25.512,6.371,1.5672
25.532,6.3761,1.5501
25.552,6.381,1.5341
25.572,6.386,1.5193
25.592,6.391,1.5049
25.612,6.396,1.4905
25.632,6.401,1.4761
25.652,6.406,1.4619
25.672,6.411,1.4473
25.692,6.416,1.432
25.712,6.421,1.4167
25.732,6.426,1.4021
25.752,6.431,1.3885
25.772,6.436,1.3748
25.792,6.441,1.3615
25.812,6.446,1.3485
25.832,6.451,1.3359
25.852,6.456,1.3222
25.872,6.461,1.3066
25.892,6.466,1.2891
25.912,6.471,1.2711
25.932,6.476,1.2538
25.952,6.481,1.2387
25.972,6.486,1.2249
25.992,6.491,1.2122
26.012,6.496,1.1984
26.032,6.501,1.1832
26.052,6.506,1.1677
26.072,6.511,1.152
26.092,6.516,1.1366
26.112,6.521,1.1221
26.132,6.526,1.1078
26.152,6.531,1.0931
26.172,6.536,1.0783
26.192,6.541,1.0629
26.212,6.546,1.0472
26.232,6.551,1.0312
26.252,6.556,1.0155
26.272,6.561,1.0009
26.292,6.566,0.9868
26.312,6.571,0.9732
26.332,6.576,0.9601
26.352,6.581,0.9476
26.372,6.586,0.9351
26.392,6.591,0.9219
26.412,6.596,0.908
26.432,6.601,0.8935
26.452,6.606,0.8781
26.472,6.611,0.8616
26.492,6.616,0.8439
26.512,6.621,0.825
26.532,6.626,0.8058
26.552,6.631,0.7858
26.572,6.636,0.7635
26.592,6.641,0.7287
26.612,6.646,0.6933
26.632,6.651,0.6659
26.652,6.656,0.6449
26.672,6.661,0.6277
26.692,6.666,0.6123
26.712,6.671,0.5977
26.732,6.676,0.5839
26.752,6.681,0.571
26.772,6.686,0.5583
26.792,6.691,0.5458
26.812,6.696,0.533
26.832,6.701,0.5209
26.852,6.706,0.5095
26.872,6.711,0.4979
26.892,6.716,0.4869
26.912,6.721,0.4766
26.932,6.726,0.466
26.952,6.731,0.4553
26.972,6.736,0.4449
26.992,6.741,0.4333
27.012,6.746,0.4195
27.032,6.751,0.4025
27.052,6.756,0.3843
27.072,6.761,0.3648
27.092,6.766,0.3439
27.112,6.771,0.3226
27.132,6.776,0.3014
27.152,6.781,0.2815
27.172,6.7861,0.2633
27.192,6.791,0.2439
27.212,6.796,0.2169
27.232,6.801,0.1813
27.252,6.8061,0.1333
27.272,6.8111,0.0827
27.292,6.816,0.0491
27.312,6.821,0.0305
27.332,6.826,0.0185
27.352,6.831,0.0062
27.372,6.836,-0.0114
27.392,6.841,-0.031
27.412,6.846,-0.0388
27.432,6.851,-0.0394
27.452,6.856,-0.0382
27.472,6.861,-0.0377
27.492,6.866,-0.0377
27.512,6.871,-0.0376
27.532,6.876,-0.0377
27.552,6.881,-0.038
27.572,6.886,-0.0377
27.592,6.891,-0.0375
27.612,6.896,-0.0375
27.632,6.901,-0.0378
27.652,6.906,-0.0376
27.672,6.911,-0.0373
27.692,6.916,-0.0374
27.712,6.921,-0.0375
27.732,6.926,-0.0374
27.752,6.931,-0.0374
27.772,6.936,-0.0375
27.792,6.9409,-0.0375
27.812,6.9459,-0.0378
27.832,6.951,-0.0377
27.852,6.956,-0.0376
27.872,6.961,-0.0376
27.892,6.9661,-0.0376
27.912,6.971,-0.0376
27.932,6.976,-0.0374
27.952,6.981,-0.0374
27.972,6.986,-0.0375
27.992,6.991,-0.0373
28.012,6.996,-0.0374
28.032,7.001,-0.0375
28.052,7.006,-0.0373
28.072,7.011,-0.0373
28.092,7.016,-0.0376
28.112,7.021,-0.0376
28.132,7.026,-0.0373
28.152,7.031,-0.0373
28.172,7.036,-0.0374
28.192,7.041,-0.0376
28.212,7.046,-0.0376
28.232,7.051,-0.0377
28.252,7.056,-0.0377
28.272,7.061,-0.0378
28.292,7.066,-0.0375
28.312,7.071,-0.0375
28.332,7.076,-0.0375
28.352,7.081,-0.0376
28.372,7.086,-0.0376
28.392,7.091,-0.0375
28.412,7.096,-0.0374
28.432,7.101,-0.0373
28.452,7.106,-0.0373
28.472,7.111,-0.0373
28.492,7.116,-0.0374
28.512,7.121,-0.0375
28.532,7.126,-0.0374
28.552,7.131,-0.0374
28.572,7.136,-0.0373
28.592,7.141,-0.0373
28.612,7.146,-0.0373
28.632,7.151,-0.0371
28.652,7.156,-0.0372
28.672,7.161,-0.0373
28.692,7.166,-0.0374
28.712,7.171,-0.0376
28.732,7.176,-0.0374
28.752,7.181,-0.0374
28.772,7.186,-0.0373
28.792,7.191,-0.0372
28.812,7.196,-0.0373
28.832,7.201,-0.0373
28.852,7.206,-0.0372
28.872,7.211,-0.0372
28.892,7.216,-0.0373
28.912,7.221,-0.0375
28.932,7.226,-0.0376
28.952,7.231,-0.0375
28.972,7.236,-0.0374
28.992,7.241,-0.0374
29.012,7.246,-0.0374
29.032,7.251,-0.0374
29.052,7.256,-0.0375
29.072,7.261,-0.0374
29.092,7.266,-0.0376
29.112,7.271,-0.0375
29.132,7.276,-0.0373
29.152,7.281,-0.037
29.172,7.286,-0.0373
29.192,7.291,-0.0373
29.212,7.296,-0.0371
29.232,7.301,-0.0373
29.252,7.306,-0.0376
29.272,7.311,-0.0374
29.292,7.316,-0.0373
29.312,7.321,-0.0372
29.332,7.326,-0.0372
29.352,7.331,-0.0373
29.372,7.336,-0.0374
29.392,7.341,-0.0375
29.412,7.346,-0.0373
29.432,7.3509,-0.0371
29.452,7.356,-0.0371
29.472,7.361,-0.0372
29.492,7.366,-0.0372
29.512,7.371,-0.0372
29.532,7.376,-0.0372
29.552,7.381,-0.0373
29.572,7.386,-0.0371
29.592,7.391,-0.0372
29.612,7.396,-0.0373
29.632,7.401,-0.0372
29.652,7.406,-0.0372
29.672,7.411,-0.0373
29.692,7.416,-0.0373
29.712,7.421,-0.0375
29.732,7.426,-0.0375
29.752,7.431,-0.0374
29.772,7.436,-0.0371
29.792,7.441,-0.0371
29.812,7.446,-0.0372
29.832,7.451,-0.037
29.852,7.456,-0.0371
29.872,7.461,-0.0372
29.892,7.466,-0.0371
29.912,7.471,-0.0371
29.932,7.476,-0.0371
29.952,7.481,-0.0371
29.972,7.486,-0.0371
29.992,7.491,-0.0373
30.012,7.496,-0.0372
30.032,7.501,-0.0374
30.052,7.5059,-0.0374
30.072,7.511,-0.0375
30.092,7.516,-0.0374
30.112,7.521,-0.0372
30.132,7.526,-0.0372
30.152,7.531,-0.0373
30.172,7.536,-0.0373
30.192,7.541,-0.0371
30.212,7.546,-0.037
30.232,7.551,-0.0371
30.252,7.556,-0.0372
30.272,7.561,-0.0372
30.292,7.566,-0.0371
30.312,7.571,-0.0371
30.332,7.576,-0.0372
30.352,7.581,-0.0371
30.372,7.586,-0.0372
30.392,7.591,-0.0375
30.412,7.596,-0.0373
30.432,7.601,-0.0374
30.452,7.606,-0.0374
30.472,7.611,-0.0375
30.492,7.616,-0.0375
30.512,7.621,-0.0373
30.532,7.626,-0.0372
30.552,7.631,-0.0372
30.572,7.636,-0.0374
30.592,7.641,-0.0371
30.612,7.646,-0.0371
30.632,7.651,-0.0372
30.652,7.656,-0.0371
30.672,7.661,-0.0372
30.692,7.666,-0.0373
30.712,7.671,-0.0372
30.732,7.676,-0.0371
30.752,7.681,-0.0371
30.772,7.686,-0.037
30.792,7.691,-0.0369
30.812,7.696,-0.037
30.832,7.7009,-0.0372
30.852,7.7059,-0.0372
30.872,7.7109,-0.037
30.892,7.716,-0.0371
30.912,7.721,-0.0372
30.932,7.726,-0.0372
30.952,7.731,-0.0374
30.972,7.736,-0.0372
30.992,7.741,-0.0371
31.012,7.746,-0.0371
31.032,7.751,-0.0369
31.052,7.756,-0.037
31.072,7.761,-0.0371
31.092,7.766,-0.037
31.112,7.771,-0.037
31.132,7.776,-0.0369
31.152,7.781,-0.0369
31.172,7.786,-0.0371
31.192,7.791,-0.0369
31.212,7.796,-0.0368
31.232,7.801,-0.0371
31.252,7.806,-0.0371
31.272,7.811,-0.037
31.292,7.816,-0.0371
31.312,7.821,-0.037
31.332,7.826,-0.037
31.352,7.831,-0.0372
31.372,7.836,-0.0373
31.392,7.841,-0.0371
31.412,7.846,-0.0372
31.432,7.851,-0.0371
31.452,7.856,-0.037
31.472,7.861,-0.0373
31.492,7.866,-0.0371
31.512,7.871,-0.0371
31.532,7.876,-0.0371
31.552,7.881,-0.0371
31.572,7.886,-0.037
31.592,7.891,-0.0368
31.612,7.896,-0.0371
31.632,7.901,-0.0373
31.652,7.906,-0.0373
31.672,7.911,-0.0374
31.692,7.916,-0.0373
31.712,7.921,-0.0372
31.732,7.926,-0.037
31.752,7.931,-0.0369
31.772,7.936,-0.037
31.792,7.941,-0.0369
31.812,7.946,-0.037
31.832,7.951,-0.0371
31.852,7.956,-0.0371
31.872,7.961,-0.0371
31.892,7.966,-0.0371
31.912,7.971,-0.0372
31.932,7.976,-0.0371
31.952,7.981,-0.037
31.972,7.986,-0.0373
31.992,7.991,-0.037
32.012,7.996,-0.0369
32.032,8.001,-0.0367
32.052,8.006,-0.0369
32.072,8.011,-0.037
32.092,8.016,-0.037
32.112,8.021,-0.037
32.132,8.026,-0.0369
32.152,8.031,-0.0368
32.172,8.036,-0.0369
32.192,8.041,-0.037
32.212,8.046,-0.037
32.232,8.051,-0.0372
32.252,8.056,-0.0371
32.272,8.061,-0.0367
32.292,8.066,-0.0368
32.312,8.071,-0.0368
32.332,8.076,-0.0369
32.352,8.081,-0.0367
32.372,8.086,-0.0368
32.392,8.091,-0.0369
32.412,8.096,-0.037
32.432,8.101,-0.0369
32.452,8.106,-0.0369
32.472,8.111,-0.0369
32.492,8.116,-0.0371
32.512,8.121,-0.0371
32.532,8.126,-0.037
32.552,8.131,-0.0368
32.572,8.136,-0.0368
32.592,8.141,-0.0368
32.612,8.146,-0.0369
32.632,8.151,-0.0371
32.652,8.156,-0.037
32.672,8.161,-0.0369
32.692,8.166,-0.037
32.712,8.171,-0.0369
32.732,8.176,-0.0369
32.752,8.181,-0.0371
32.772,8.186,-0.0371
32.792,8.191,-0.037
32.812,8.196,-0.0371
32.832,8.201,-0.0372
32.852,8.206,-0.0372
32.872,8.211,-0.037
32.892,8.216,-0.037
32.912,8.221,-0.0369
32.932,8.226,-0.0369
32.952,8.231,-0.0369
32.972,8.236,-0.037
32.992,8.241,-0.0372
33.012,8.246,-0.0372
33.032,8.251,-0.0372
33.052,8.256,-0.0373
33.072,8.261,-0.0371
33.092,8.266,-0.0371
33.112,8.271,-0.037
33.132,8.276,-0.037
33.152,8.281,-0.0372
33.172,8.286,-0.0371
33.192,8.291,-0.037
33.212,8.296,-0.037
33.232,8.301,-0.0371
33.252,8.306,-0.0372
33.272,8.311,-0.0373
33.292,8.316,-0.0373
33.312,8.321,-0.0371
33.332,8.326,-0.037
33.352,8.331,-0.0371
33.372,8.336,-0.0372
33.392,8.3409,-0.037
33.412,8.346,-0.0369
33.432,8.351,-0.037
33.452,8.356,-0.0371
33.472,8.361,-0.0371
33.492,8.366,-0.037
33.512,8.371,-0.0372
33.532,8.376,-0.0373
33.552,8.381,-0.037
33.572,8.386,-0.0368
33.592,8.391,-0.0368
33.612,8.396,-0.0369
33.632,8.401,-0.0372
33.652,8.4059,-0.0372
33.672,8.411,-0.0368
33.692,8.416,-0.037
33.712,8.421,-0.0371
33.732,8.426,-0.0371
33.752,8.431,-0.0372
33.772,8.436,-0.037
33.792,8.4411,-0.0368
33.812,8.446,-0.0369
33.832,8.451,-0.0371
33.852,8.456,-0.0372
33.872,8.461,-0.0371
33.892,8.466,-0.037
33.912,8.471,-0.037
33.932,8.476,-0.037
33.952,8.481,-0.0369
33.972,8.486,-0.0371
33.992,8.491,-0.0369
34.012,8.496,-0.0368
34.032,8.501,-0.0367
34.052,8.506,-0.0368
34.072,8.511,-0.037
34.092,8.516,-0.0371
34.112,8.521,-0.037
34.132,8.526,-0.0368
34.152,8.531,-0.0368
34.172,8.536,-0.0369
34.192,8.541,-0.0368
34.212,8.546,-0.0369
34.232,8.551,-0.037
34.252,8.556,-0.0369
34.272,8.561,-0.037
34.292,8.566,-0.0371
34.312,8.571,-0.0369
34.332,8.576,-0.0368
34.352,8.581,-0.0369
34.372,8.586,-0.037
34.392,8.591,-0.037
34.412,8.596,-0.0368
34.432,8.601,-0.0368
34.452,8.606,-0.0368
34.472,8.611,-0.0369
34.492,8.616,-0.0369
34.512,8.621,-0.037
34.532,8.626,-0.0369
34.552,8.631,-0.0369
34.572,8.6359,-0.0369
34.592,8.641,-0.0369
34.612,8.646,-0.037
34.632,8.651,-0.037
34.652,8.656,-0.0369
34.672,8.661,-0.0368
34.692,8.666,-0.0368
34.712,8.671,-0.0366
34.732,8.676,-0.0367
34.752,8.681,-0.0367
34.772,8.686,-0.0369
34.792,8.691,-0.0372
34.812,8.696,-0.0372
34.832,8.701,-0.0369
34.852,8.706,-0.0369
34.872,8.711,-0.037
34.892,8.716,-0.0368
34.912,8.721,-0.0367
34.932,8.726,-0.037
34.952,8.731,-0.037
34.972,8.736,-0.037
34.992,8.741,-0.0367
35.012,8.746,-0.0367
35.032,8.751,-0.037
35.052,8.756,-0.037
35.072,8.761,-0.0371
35.092,8.766,-0.0369
35.112,8.771,-0.0369
35.132,8.776,-0.0367
35.152,8.781,-0.0367
35.172,8.786,-0.0366
35.192,8.791,-0.0369
35.212,8.796,-0.0371
35.232,8.801,-0.0369
35.252,8.806,-0.0368
35.272,8.811,-0.0368
35.292,8.816,-0.0369
35.312,8.821,-0.0369
35.332,8.826,-0.0368
35.352,8.831,-0.0369
35.372,8.836,-0.0368
35.392,8.841,-0.0368
35.412,8.846,-0.0368
35.432,8.851,-0.0369
35.452,8.856,-0.037
35.472,8.861,-0.0369
35.492,8.866,-0.0368
35.512,8.871,-0.0368
35.532,8.876,-0.0368
35.552,8.881,-0.0369
35.572,8.886,-0.0367
35.592,8.891,-0.0367
35.612,8.896,-0.0368
35.632,8.901,-0.0368
35.652,8.906,-0.0371
35.672,8.911,-0.0369
35.692,8.916,-0.0368
35.712,8.921,-0.0368
35.732,8.926,-0.0369
35.752,8.931,-0.037
35.772,8.936,-0.037
35.792,8.941,-0.0369
35.812,8.946,-0.037
35.832,8.951,-0.037
35.852,8.956,-0.037
35.872,8.961,-0.0369
35.892,8.966,-0.0368
35.912,8.971,-0.0369
35.932,8.9759,-0.0371
35.952,8.981,-0.037
35.972,8.986,-0.037
35.992,8.991,-0.0369
36.012,8.996,-0.0368
36.032,9.001,-0.037
36.052,9.0059,-0.037
36.072,9.011,-0.0371
36.092,9.016,-0.037
36.112,9.021,-0.0368
36.132,9.026,-0.0368
36.152,9.031,-0.037
36.172,9.036,-0.0371
36.192,9.041,-0.0372
36.212,9.046,-0.0372
36.232,9.051,-0.037
36.252,9.056,-0.0368
36.272,9.061,-0.0368
36.292,9.0659,-0.0369
36.312,9.071,-0.037
36.332,9.076,-0.0369
36.352,9.081,-0.037
36.372,9.0861,-0.0367
36.392,9.0911,-0.0367
36.412,9.096,-0.0368
36.432,9.101,-0.0368
36.452,9.1059,-0.0369
36.472,9.1109,-0.0369
36.492,9.1159,-0.0369
36.512,9.121,-0.0368
36.532,9.126,-0.0367
36.552,9.1311,-0.0368
36.572,9.136,-0.0369
36.592,9.141,-0.037
36.612,9.146,-0.0371
36.632,9.151,-0.037
36.652,9.156,-0.0369
36.672,9.161,-0.037
36.692,9.166,-0.0368
36.712,9.171,-0.037
36.732,9.176,-0.0369
36.752,9.181,-0.037
36.772,9.186,-0.0371
36.792,9.191,-0.0371
36.812,9.196,-0.0369
36.832,9.201,-0.0368
36.852,9.206,-0.0368
36.872,9.211,-0.0367
36.892,9.216,-0.0366
36.912,9.221,-0.0367
36.932,9.226,-0.037
36.952,9.231,-0.037
36.972,9.236,-0.037
36.992,9.241,-0.0372
37.012,9.246,-0.037
37.032,9.251,-0.0369
37.052,9.256,-0.0368
37.072,9.261,-0.0369
37.092,9.266,-0.0369
37.112,9.271,-0.037
37.132,9.276,-0.0369
37.152,9.281,-0.0368
37.172,9.286,-0.0367
37.192,9.291,-0.0367
37.212,9.296,-0.0367
37.232,9.301,-0.0368
37.252,9.306,-0.0369
37.272,9.311,-0.0369
37.292,9.316,-0.0369
37.312,9.321,-0.0368
37.332,9.326,-0.0368
37.352,9.331,-0.0369
37.372,9.336,-0.0369
37.392,9.341,-0.0368
37.412,9.346,-0.0369
37.432,9.351,-0.0369
37.452,9.356,-0.0369
37.472,9.361,-0.0368
37.492,9.366,-0.0367
37.512,9.371,-0.0367
37.532,9.376,-0.0368
37.552,9.381,-0.037
37.572,9.386,-0.0368
37.592,9.391,-0.0368
37.612,9.396,-0.0369
37.632,9.401,-0.0369
37.652,9.406,-0.0368
37.672,9.411,-0.0367
37.692,9.416,-0.0367
37.712,9.421,-0.0368
37.732,9.426,-0.0371
37.752,9.431,-0.0372
37.772,9.436,-0.037
37.792,9.441,-0.0368
37.812,9.446,-0.0368
37.832,9.451,-0.037
37.852,9.456,-0.0369
37.872,9.461,-0.0368
37.892,9.466,-0.0366
37.912,9.471,-0.0367
37.932,9.476,-0.0367
37.952,9.481,-0.0367
37.972,9.486,-0.0367
37.992,9.491,-0.0369
38.012,9.496,-0.0369
38.032,9.501,-0.0371
38.052,9.506,-0.037
38.072,9.511,-0.0369
38.092,9.516,-0.0367
38.112,9.521,-0.0366
38.132,9.526,-0.0366
38.152,9.531,-0.0366
38.172,9.536,-0.0369
38.192,9.541,-0.0368
38.212,9.546,-0.0368
38.232,9.551,-0.0368
38.252,9.556,-0.0368
38.272,9.561,-0.037
38.292,9.566,-0.0369
38.312,9.571,-0.0369
38.332,9.576,-0.0368
38.352,9.581,-0.0366
38.372,9.586,-0.0366
38.392,9.591,-0.0367
38.412,9.596,-0.0366
38.432,9.601,-0.0368
38.452,9.606,-0.0369
38.472,9.611,-0.0368
38.492,9.616,-0.0368
38.512,9.621,-0.0366
38.532,9.626,-0.0365
38.552,9.631,-0.0365
38.572,9.636,-0.0366
38.592,9.641,-0.0367
38.612,9.646,-0.0365
38.632,9.651,-0.0365
38.652,9.656,-0.0366
38.672,9.661,-0.0367
38.692,9.666,-0.0367
38.712,9.671,-0.0367
38.732,9.676,-0.0368
38.752,9.6809,-0.0369
38.772,9.686,-0.037
38.792,9.691,-0.0369
38.812,9.696,-0.0369
38.832,9.701,-0.0369
38.852,9.706,-0.0368
38.872,9.711,-0.0369
38.892,9.716,-0.0369
38.912,9.721,-0.0368
38.932,9.726,-0.0367
38.952,9.731,-0.0368
38.972,9.736,-0.0368
38.992,9.741,-0.0367
39.012,9.746,-0.0365
39.032,9.751,-0.0368
39.052,9.756,-0.0368
39.072,9.761,-0.0367
39.092,9.766,-0.0368
39.112,9.771,-0.0368
39.132,9.776,-0.037
39.152,9.781,-0.037
39.172,9.786,-0.037
39.192,9.791,-0.0369
39.212,9.796,-0.0369
39.232,9.801,-0.037
39.252,9.806,-0.0369
39.272,9.811,-0.0369
39.292,9.816,-0.0366
39.312,9.821,-0.0367
39.332,9.826,-0.0368
39.352,9.831,-0.0368
39.372,9.836,-0.0368
39.392,9.841,-0.0371
39.412,9.846,-0.037
39.432,9.851,-0.0368
39.452,9.856,-0.0368
39.472,9.861,-0.0365
39.492,9.866,-0.0366
39.512,9.871,-0.0368
39.532,9.876,-0.0368
39.552,9.881,-0.0368
39.572,9.886,-0.0367
39.592,9.891,-0.0368
39.612,9.896,-0.0367
39.632,9.901,-0.0366
39.652,9.906,-0.0367
39.672,9.911,-0.0369
39.692,9.916,-0.0368
39.712,9.921,-0.0367
39.732,9.926,-0.0367
39.752,9.931,-0.0366
39.772,9.936,-0.0364
39.792,9.941,-0.0364
39.812,9.946,-0.0367
39.832,9.951,-0.0368
39.852,9.956,-0.0369
39.872,9.961,-0.0371
39.892,9.966,-0.0371
39.912,9.971,-0.037
39.932,9.976,-0.0368
39.952,9.981,-0.0369
39.972,9.986,-0.0368
39.992,9.991,-0.0368
40.012,9.996,-0.0366
40.032,10.001,-0.0366
40.052,10.006,-0.0367
40.072,10.011,-0.0368
40.092,10.016,-0.0368
40.112,10.021,-0.0368
40.132,10.026,-0.037
40.152,10.031,-0.0371
40.172,10.036,-0.0369
40.192,10.041,-0.0367
40.212,10.046,-0.0367
40.232,10.051,-0.0366
40.252,10.056,-0.0367
40.272,10.061,-0.0367
40.292,10.066,-0.0369
40.312,10.071,-0.0369
40.332,10.076,-0.0367
40.352,10.081,-0.0366
40.372,10.086,-0.0366
40.392,10.091,-0.0368
40.412,10.096,-0.0369
40.432,10.101,-0.0368
40.452,10.106,-0.0367
40.472,10.111,-0.0369
40.492,10.116,-0.0372
40.512,10.121,-0.0369
40.532,10.126,-0.0368
40.552,10.131,-0.0367
40.572,10.136,-0.0366
40.592,10.141,-0.0366
40.612,10.146,-0.0366
40.632,10.151,-0.0366
40.652,10.156,-0.0368
40.672,10.161,-0.0368
40.692,10.166,-0.0369
40.712,10.171,-0.0368
40.732,10.1761,-0.0366
40.752,10.181,-0.0366
40.772,10.186,-0.0366
40.792,10.191,-0.0366
40.812,10.196,-0.0366
40.832,10.201,-0.0366
40.852,10.206,-0.0369
40.872,10.211,-0.0369
40.892,10.216,-0.0367
40.912,10.221,-0.0367
40.932,10.226,-0.0367
40.952,10.231,-0.0369
40.972,10.236,-0.0369
40.992,10.241,-0.0367
41.012,10.246,-0.0365
41.032,10.251,-0.0366
41.052,10.256,-0.0367
41.072,10.261,-0.0367
41.092,10.266,-0.0365
41.112,10.271,-0.0367
41.132,10.276,-0.0367
41.152,10.281,-0.0367
41.172,10.286,-0.0368
41.192,10.291,-0.0369
41.212,10.296,-0.0369
41.232,10.301,-0.0367
41.252,10.306,-0.0366
41.272,10.311,-0.0365
41.292,10.316,-0.0366
41.312,10.321,-0.0366
41.332,10.326,-0.0368
41.352,10.331,-0.0369
41.372,10.336,-0.0369
41.392,10.341,-0.0367
41.412,10.346,-0.0368
41.432,10.351,-0.0368
41.452,10.356,-0.037
41.472,10.361,-0.037
41.492,10.3659,-0.0369
41.512,10.3709,-0.0367
41.532,10.3759,-0.0367
41.552,10.381,-0.0369
41.572,10.386,-0.0368
41.592,10.391,-0.0368
41.612,10.396,-0.0368
41.632,10.401,-0.0369
41.652,10.406,-0.0369
41.672,10.411,-0.0367
41.692,10.416,-0.0367
41.712,10.421,-0.0367
41.732,10.426,-0.0369
41.752,10.431,-0.0369
41.772,10.436,-0.0368
41.792,10.441,-0.0367
41.812,10.446,-0.0367
41.832,10.451,-0.0367
41.852,10.456,-0.0367
41.872,10.461,-0.0365
41.892,10.466,-0.0367
41.912,10.471,-0.0366
41.932,10.476,-0.0366
41.952,10.481,-0.0364
41.972,10.486,-0.0365
41.992,10.491,-0.0366
42.012,10.496,-0.0365
42.032,10.501,-0.0367
42.052,10.506,-0.0367
42.072,10.511,-0.0366
42.092,10.516,-0.0366
42.112,10.521,-0.0367
42.132,10.526,-0.0366
42.152,10.531,-0.0367
42.172,10.536,-0.0371
42.192,10.541,-0.0368
42.212,10.546,-0.0368
42.232,10.551,-0.037
42.252,10.556,-0.0371
42.272,10.561,-0.037
42.292,10.566,-0.0371
42.312,10.571,-0.0368
42.332,10.576,-0.0365
42.352,10.581,-0.0367
42.372,10.586,-0.0367
42.392,10.591,-0.0368
42.412,10.596,-0.0369
42.432,10.601,-0.0368
42.452,10.606,-0.0368
42.472,10.611,-0.0367
42.492,10.616,-0.0366
42.512,10.621,-0.0366
42.532,10.626,-0.0365
42.552,10.631,-0.0367
42.572,10.636,-0.0367
42.592,10.641,-0.0367
42.612,10.646,-0.0365
42.632,10.651,-0.0364
42.652,10.656,-0.0367
42.672,10.661,-0.0368
42.692,10.666,-0.0369
42.712,10.671,-0.037
42.732,10.676,-0.0369
42.752,10.681,-0.0366
42.772,10.686,-0.0366
42.792,10.691,-0.0369
42.812,10.696,-0.037
42.832,10.701,-0.0366
42.852,10.706,-0.0365
42.872,10.711,-0.0366
42.892,10.716,-0.0367
42.912,10.721,-0.0368
42.932,10.726,-0.0368
42.952,10.731,-0.037
42.972,10.736,-0.037
42.992,10.741,-0.0369
43.012,10.7459,-0.0369
43.032,10.7509,-0.0368
43.052,10.756,-0.0367
43.072,10.761,-0.0366
43.092,10.766,-0.0367
43.112,10.771,-0.0368
43.132,10.776,-0.0368
43.152,10.781,-0.0367
43.172,10.786,-0.0365
43.192,10.791,-0.0365
43.212,10.796,-0.0367
43.232,10.801,-0.0368
43.252,10.806,-0.0366
43.272,10.811,-0.0366
43.292,10.816,-0.0368
43.312,10.821,-0.0368
43.332,10.826,-0.0368
43.352,10.831,-0.0368
43.372,10.836,-0.0367
43.392,10.841,-0.0365
43.412,10.846,-0.0366
43.432,10.851,-0.0366
43.452,10.856,-0.0367
43.472,10.861,-0.0368
43.492,10.866,-0.0367
43.512,10.871,-0.0367
43.532,10.876,-0.0367
43.552,10.881,-0.0367
43.572,10.886,-0.0366
43.592,10.891,-0.0364
43.612,10.896,-0.0367
43.632,10.901,-0.0366
43.652,10.906,-0.0365
43.672,10.911,-0.0366
43.692,10.916,-0.0369
43.712,10.9209,-0.0369
43.732,10.926,-0.0368
43.752,10.931,-0.0368
43.772,10.936,-0.0369
43.792,10.941,-0.0369
43.812,10.946,-0.0367
43.832,10.951,-0.0367
43.852,10.956,-0.0366
43.872,10.961,-0.0366
43.892,10.966,-0.0367
43.912,10.971,-0.037
43.932,10.976,-0.0368
43.952,10.981,-0.037
43.972,10.986,-0.0369
43.992,10.991,-0.0367
44.012,10.996,-0.0367
44.032,11.001,-0.0365
44.052,11.006,-0.0367
44.072,11.011,-0.0368
44.092,11.016,-0.0367
44.112,11.021,-0.0366
44.132,11.026,-0.0368
44.152,11.031,-0.0367
44.172,11.036,-0.0369
44.192,11.041,-0.0369
44.212,11.046,-0.0368
44.232,11.051,-0.0367
44.252,11.056,-0.0366
44.272,11.061,-0.0368
44.292,11.066,-0.0368
44.312,11.071,-0.0367
44.332,11.076,-0.0367
44.352,11.081,-0.0368
44.372,11.086,-0.0368
44.392,11.091,-0.0368
44.412,11.096,-0.0367
44.432,11.101,-0.0367
44.452,11.106,-0.0367
44.472,11.111,-0.0367
44.492,11.116,-0.0366
44.512,11.121,-0.0367
44.532,11.126,-0.0367
44.552,11.131,-0.0366
44.572,11.136,-0.0368
44.592,11.141,-0.0368
44.612,11.146,-0.0367
44.632,11.151,-0.0367
44.652,11.156,-0.0367
44.672,11.161,-0.0367
44.692,11.166,-0.0368
44.712,11.171,-0.0369
44.732,11.176,-0.037
44.752,11.181,-0.037
44.772,11.186,-0.0369
44.792,11.191,-0.0368
44.812,11.196,-0.0366
44.832,11.201,-0.0364
44.852,11.206,-0.0365
44.872,11.211,-0.0367
44.892,11.216,-0.0367
44.912,11.221,-0.0369
44.932,11.226,-0.0367
44.952,11.231,-0.0366
44.972,11.236,-0.0367
44.992,11.241,-0.0369
45.012,11.246,-0.0369
45.032,11.251,-0.0368
45.052,11.256,-0.0368
45.072,11.261,-0.0369
45.092,11.266,-0.0368
45.112,11.271,-0.0369
45.132,11.276,-0.0367
45.152,11.281,-0.0367
45.172,11.286,-0.0367
45.192,11.291,-0.0366
45.212,11.296,-0.0369
45.232,11.301,-0.0369
45.252,11.306,-0.037
45.272,11.311,-0.037
45.292,11.316,-0.0368
45.312,11.321,-0.0368
45.332,11.326,-0.0369
45.352,11.331,-0.0367
45.372,11.336,-0.0367
45.392,11.341,-0.0368
45.412,11.346,-0.0367
45.432,11.351,-0.0367
45.452,11.356,-0.0368
45.472,11.361,-0.0368
45.492,11.366,-0.0369
45.512,11.371,-0.0369
45.532,11.376,-0.0369
45.552,11.381,-0.0368
45.572,11.386,-0.0367
45.592,11.391,-0.0368
45.612,11.396,-0.0368
45.632,11.401,-0.0369
45.652,11.406,-0.0369
45.672,11.411,-0.0369
45.692,11.416,-0.0369
45.712,11.421,-0.0369
45.732,11.426,-0.0368
45.752,11.431,-0.0368
45.772,11.436,-0.0368
45.792,11.441,-0.0368
45.812,11.446,-0.0367
45.832,11.451,-0.0367
45.852,11.456,-0.0368
45.872,11.461,-0.0369
45.892,11.466,-0.0368
45.912,11.471,-0.0367
45.932,11.476,-0.0368
45.952,11.481,-0.0371
45.972,11.486,-0.0371
45.992,11.491,-0.037
46.012,11.496,-0.0367
46.032,11.501,-0.0367
46.052,11.506,-0.0367
46.072,11.511,-0.0366
46.092,11.516,-0.0366
46.112,11.521,-0.0367
46.132,11.526,-0.0369
46.152,11.531,-0.0369
46.172,11.536,-0.0367
46.192,11.541,-0.0367
46.212,11.546,-0.0369
46.232,11.551,-0.037
46.252,11.5559,-0.037
46.272,11.561,-0.0367
46.292,11.566,-0.0365
46.312,11.571,-0.0367
46.332,11.576,-0.0368
46.352,11.581,-0.0366
46.372,11.586,-0.0366
46.392,11.591,-0.0368
46.412,11.596,-0.0368
46.432,11.601,-0.0368
46.452,11.606,-0.0368
46.472,11.611,-0.0366
46.492,11.616,-0.0366
46.512,11.621,-0.0369
46.532,11.626,-0.0368
46.552,11.631,-0.0365
46.572,11.636,-0.0366
46.592,11.641,-0.0368
46.612,11.646,-0.0367
46.632,11.651,-0.0365
46.652,11.656,-0.0366
46.672,11.661,-0.0367
46.692,11.666,-0.0368
46.712,11.671,-0.0368
46.732,11.676,-0.0368
46.752,11.681,-0.0369
46.772,11.686,-0.0369
46.792,11.691,-0.0369
46.812,11.696,-0.0367
46.832,11.701,-0.0368
46.852,11.706,-0.0368
46.872,11.711,-0.0369
46.892,11.716,-0.0368
46.912,11.721,-0.0365
46.932,11.726,-0.0366
46.952,11.731,-0.0366
46.972,11.736,-0.0367
46.992,11.741,-0.0369
47.012,11.746,-0.0369
47.032,11.751,-0.0369
47.052,11.756,-0.0367
47.072,11.761,-0.0366
47.092,11.766,-0.0368
47.112,11.7709,-0.0368
47.132,11.776,-0.0369
47.152,11.781,-0.0368
47.172,11.786,-0.0368
47.192,11.791,-0.0365
47.212,11.796,-0.0367
47.232,11.801,-0.0366
47.252,11.806,-0.0365
47.272,11.811,-0.0364
47.292,11.816,-0.0366
47.312,11.8209,-0.0369
47.332,11.8259,-0.0369
47.352,11.8309,-0.0367
47.372,11.836,-0.0365
47.392,11.841,-0.0365
47.412,11.846,-0.0367
47.432,11.851,-0.0368
47.452,11.8559,-0.0366
47.472,11.8609,-0.0368
47.492,11.866,-0.0367
47.512,11.871,-0.0367
47.532,11.876,-0.0367
47.552,11.881,-0.0367
47.572,11.886,-0.0367
47.592,11.891,-0.0369
47.612,11.896,-0.0369
47.632,11.901,-0.0367
47.652,11.906,-0.0369
47.672,11.911,-0.0367
47.692,11.916,-0.0366
47.712,11.921,-0.0367
47.732,11.926,-0.0368
47.752,11.931,-0.0368
47.772,11.936,-0.0369
47.792,11.941,-0.0367
47.812,11.946,-0.0367
47.832,11.951,-0.0367
47.852,11.956,-0.0367
47.872,11.961,-0.0366
47.892,11.966,-0.0366
47.912,11.971,-0.0366
47.932,11.976,-0.0367
47.952,11.981,-0.0365
47.972,11.986,-0.0365
47.992,11.991,-0.0364
48.012,11.996,-0.0365
48.032,12.001,-0.0369
48.052,12.006,-0.037
48.072,12.011,-0.037
48.092,12.016,-0.0367
48.112,12.021,-0.0366
48.132,12.026,-0.0366
48.152,12.031,-0.0367
48.172,12.036,-0.0368
48.192,12.041,-0.037
48.212,12.046,-0.0368
48.232,12.051,-0.0367
48.252,12.056,-0.0368
48.272,12.061,-0.0368
48.292,12.066,-0.0367
48.312,12.071,-0.0368
48.332,12.076,-0.0366
48.352,12.081,-0.0367
48.372,12.086,-0.0369
48.392,12.091,-0.037
48.412,12.096,-0.0368
48.432,12.101,-0.0367
48.452,12.106,-0.0367
48.472,12.111,-0.0368
48.492,12.116,-0.0369
48.512,12.121,-0.0369
48.532,12.126,-0.0366
48.552,12.131,-0.0368
48.572,12.136,-0.0369
48.592,12.141,-0.0369
48.612,12.146,-0.0368
48.632,12.151,-0.0365
48.652,12.156,-0.0364
48.672,12.161,-0.0365
48.692,12.166,-0.0368
48.712,12.171,-0.0369
48.732,12.176,-0.0369
48.752,12.181,-0.0366
48.772,12.186,-0.0368
48.792,12.191,-0.0368
48.812,12.196,-0.0367
48.832,12.201,-0.0367
48.852,12.206,-0.0367
48.872,12.211,-0.0366
48.892,12.216,-0.0367
48.912,12.221,-0.0369
48.932,12.226,-0.0368
48.952,12.231,-0.0368
48.972,12.236,-0.0367
48.992,12.241,-0.0366
49.012,12.246,-0.0368
49.032,12.251,-0.0368
49.052,12.256,-0.0368
49.072,12.261,-0.0367
49.092,12.266,-0.0366
49.112,12.271,-0.0365
49.132,12.276,-0.0366
49.152,12.281,-0.0367
49.172,12.286,-0.0368
49.192,12.2909,-0.0368
49.212,12.2959,-0.0366
49.232,12.301,-0.0369
49.252,12.306,-0.0368
49.272,12.311,-0.0369
49.292,12.316,-0.0371
49.312,12.3209,-0.0369
49.332,12.3259,-0.0369
49.352,12.3309,-0.0369
49.372,12.336,-0.037
49.392,12.341,-0.0371
49.412,12.346,-0.0371
49.432,12.351,-0.0367
49.452,12.356,-0.0366
49.472,12.361,-0.0366
49.492,12.366,-0.0366
49.512,12.371,-0.0368
49.532,12.376,-0.0367
49.552,12.381,-0.0366
49.572,12.386,-0.0366
49.592,12.391,-0.0366
49.612,12.396,-0.0366
49.632,12.401,-0.0366
49.652,12.406,-0.0368
49.672,12.411,-0.0366
49.692,12.416,-0.0365
49.712,12.421,-0.0366
49.732,12.426,-0.0366
49.752,12.431,-0.0367
49.772,12.436,-0.0368
49.792,12.441,-0.0367
49.812,12.446,-0.0366
49.832,12.451,-0.0365
49.852,12.456,-0.0366
49.872,12.461,-0.0366
49.892,12.466,-0.0367
49.912,12.471,-0.0369
49.932,12.476,-0.0368
49.952,12.481,-0.0367
49.972,12.486,-0.0367
49.992,12.491,-0.0367
50.012,12.496,-0.0368
50.032,12.501,-0.0369
50.052,12.506,-0.0369
50.072,12.511,-0.0368
50.092,12.516,-0.0366
50.112,12.521,-0.0364
50.132,12.526,-0.0365
50.152,12.531,-0.0367
50.172,12.536,-0.037
50.192,12.541,-0.0368
50.212,12.546,-0.0368
50.232,12.551,-0.0366
50.252,12.556,-0.0366
50.272,12.561,-0.0367
50.292,12.566,-0.0366
50.312,12.571,-0.0366
50.332,12.5759,-0.0367
50.352,12.581,-0.0367
50.372,12.586,-0.0368
50.392,12.591,-0.0366
50.412,12.596,-0.0366
50.432,12.601,-0.0366
50.452,12.606,-0.0365
50.472,12.611,-0.0365
50.492,12.616,-0.0367
50.512,12.621,-0.0367
50.532,12.626,-0.0366
50.552,12.631,-0.0366
50.572,12.636,-0.0368
50.592,12.641,-0.037
50.612,12.646,-0.0369
50.632,12.651,-0.0368
50.652,12.656,-0.0369
50.672,12.661,-0.0368
50.692,12.666,-0.0367
50.712,12.671,-0.0367
50.732,12.676,-0.0366
50.752,12.681,-0.0367
50.772,12.686,-0.0364
50.792,12.6909,-0.0364
50.812,12.6959,-0.0365
50.832,12.7009,-0.0367
50.852,12.706,-0.0368
50.872,12.711,-0.0367
50.892,12.716,-0.037
50.912,12.721,-0.037
50.932,12.726,-0.0368
50.952,12.731,-0.0367
50.972,12.736,-0.0368
50.992,12.741,-0.0366
51.012,12.746,-0.0368
51.032,12.751,-0.0369
51.052,12.756,-0.0368
51.072,12.761,-0.0367
51.092,12.766,-0.0366
51.112,12.771,-0.0363
51.132,12.776,-0.0365
51.152,12.781,-0.0367
51.172,12.786,-0.0369
51.192,12.791,-0.0366
51.212,12.796,-0.0367
51.232,12.801,-0.0367
51.252,12.806,-0.0367
51.272,12.811,-0.0367
51.292,12.816,-0.0368
51.312,12.821,-0.0368
51.332,12.826,-0.037
51.352,12.831,-0.0369
51.372,12.836,-0.0368
51.392,12.841,-0.0364
51.412,12.846,-0.0365
51.432,12.851,-0.0366
51.452,12.856,-0.0368
51.472,12.8609,-0.037
51.492,12.8659,-0.0368
51.512,12.8709,-0.0369
51.532,12.876,-0.0368
51.552,12.881,-0.0366
51.572,12.886,-0.0367
51.592,12.891,-0.0366
51.612,12.896,-0.0366
51.632,12.901,-0.0368
51.652,12.906,-0.0366
51.672,12.911,-0.0365
51.692,12.916,-0.0365
51.712,12.921,-0.0368
51.732,12.926,-0.037
51.752,12.931,-0.0369
51.772,12.936,-0.0369
51.792,12.941,-0.0365
51.812,12.946,-0.0364
51.832,12.951,-0.0364
51.852,12.956,-0.0365
51.872,12.961,-0.0368
51.892,12.966,-0.0369
51.912,12.971,-0.0368
51.932,12.976,-0.0367
51.952,12.981,-0.0368
51.972,12.986,-0.0367
51.992,12.991,-0.0367
52.012,12.996,-0.0364
52.032,13.001,-0.0366
52.052,13.006,-0.0367
52.072,13.011,-0.0369
52.092,13.016,-0.0369
52.112,13.021,-0.0366
52.132,13.026,-0.0368
52.152,13.031,-0.0367
52.172,13.036,-0.0367
52.192,13.041,-0.0366
52.212,13.046,-0.0364
52.232,13.051,-0.0366
52.252,13.056,-0.0368
52.272,13.061,-0.037
52.292,13.066,-0.0368
52.312,13.071,-0.0366
52.332,13.076,-0.0366
52.352,13.081,-0.0366
52.372,13.086,-0.0366
52.392,13.091,-0.0368
52.412,13.096,-0.0367
52.432,13.101,-0.0365
52.452,13.106,-0.0365
52.472,13.111,-0.0367
52.492,13.116,-0.0366
52.512,13.121,-0.0368
52.532,13.126,-0.0368
52.552,13.131,-0.0368
52.572,13.136,-0.0368
52.592,13.141,-0.0369
52.612,13.146,-0.0366
52.632,13.151,-0.0366
52.652,13.156,-0.0367
52.672,13.161,-0.0365
52.692,13.166,-0.0367
52.712,13.171,-0.0369
52.732,13.176,-0.0368
52.752,13.181,-0.0367
52.772,13.186,-0.0368
52.792,13.191,-0.0367
52.812,13.196,-0.0368
52.832,13.201,-0.0368
52.852,13.206,-0.0367
52.872,13.211,-0.0368
52.892,13.216,-0.0368
52.912,13.221,-0.0368
52.932,13.226,-0.0367
52.952,13.231,-0.0367
52.972,13.236,-0.0367
52.992,13.241,-0.0367
53.012,13.246,-0.0368
53.032,13.251,-0.0368
53.052,13.256,-0.0367
53.072,13.261,-0.0366
53.092,13.266,-0.0367
53.112,13.271,-0.0366
53.132,13.276,-0.0366
53.152,13.281,-0.0367
53.172,13.286,-0.0366
53.192,13.291,-0.0368
53.212,13.296,-0.0367
53.232,13.301,-0.0367
53.252,13.306,-0.0367
53.272,13.3109,-0.0367
53.292,13.316,-0.0366
53.312,13.321,-0.0365
53.332,13.326,-0.0364
53.352,13.331,-0.0366
53.372,13.336,-0.0367
53.392,13.341,-0.0369
53.412,13.346,-0.0368
53.432,13.3509,-0.0368
53.452,13.3559,-0.0367
53.472,13.3609,-0.0365
53.492,13.366,-0.0367
53.512,13.371,-0.0368
53.532,13.376,-0.0367
53.552,13.381,-0.0366
53.572,13.386,-0.0368
53.592,13.391,-0.0369
53.612,13.396,-0.0368
53.632,13.401,-0.0366
53.652,13.406,-0.0367
53.672,13.411,-0.0367
53.692,13.416,-0.0366
53.712,13.421,-0.0368
53.732,13.426,-0.0367
53.752,13.431,-0.0367
53.772,13.436,-0.0367
53.792,13.441,-0.0366
53.812,13.446,-0.0366
53.832,13.451,-0.0367
53.852,13.456,-0.0367
53.872,13.461,-0.0367
53.892,13.466,-0.0368
53.912,13.471,-0.0369
53.932,13.476,-0.0368
53.952,13.481,-0.0366
53.972,13.486,-0.0366
53.992,13.491,-0.0365
54.012,13.496,-0.0363
54.032,13.501,-0.0366
54.052,13.506,-0.0368
54.072,13.511,-0.0366
54.092,13.516,-0.0364
54.112,13.521,-0.0364
54.132,13.526,-0.0366
54.152,13.531,-0.0365
54.172,13.536,-0.0365
54.192,13.541,-0.0366
54.212,13.546,-0.0367
54.232,13.551,-0.0368
54.252,13.556,-0.0367
54.272,13.561,-0.0364
54.292,13.566,-0.0365
54.312,13.571,-0.0368
54.332,13.576,-0.0367
54.352,13.581,-0.0365
54.372,13.586,-0.0366
54.392,13.591,-0.0367
54.412,13.596,-0.0365
54.432,13.601,-0.0366
54.452,13.606,-0.0366
54.472,13.611,-0.0368
54.492,13.616,-0.0369
54.512,13.621,-0.0369
54.532,13.626,-0.0368
54.552,13.631,-0.0368
54.572,13.636,-0.0369
54.592,13.641,-0.0369
54.612,13.646,-0.0369
54.632,13.651,-0.0368
54.652,13.656,-0.0369
54.672,13.661,-0.0369
54.692,13.666,-0.0367
54.712,13.671,-0.0368
54.732,13.676,-0.0369
54.752,13.681,-0.037
54.772,13.686,-0.0369
54.792,13.691,-0.0367
54.812,13.696,-0.0365
54.832,13.701,-0.0365
54.852,13.706,-0.0367
54.872,13.711,-0.0368
54.892,13.716,-0.0367
54.912,13.721,-0.0367
54.932,13.726,-0.0369
54.952,13.731,-0.0368
54.972,13.736,-0.0368
54.992,13.741,-0.0368
55.012,13.746,-0.0369
55.032,13.751,-0.0368
55.052,13.756,-0.0366
55.072,13.761,-0.0363
55.092,13.766,-0.0365
55.112,13.7709,-0.0367
55.132,13.7759,-0.0368
55.152,13.7809,-0.0367
55.172,13.7859,-0.0367
55.192,13.791,-0.0367
55.212,13.7961,-0.0367
55.232,13.8011,-0.0368
55.252,13.806,-0.0368
55.272,13.811,-0.0367
55.292,13.8159,-0.0367
55.312,13.8209,-0.0367
55.332,13.8259,-0.0367
55.352,13.831,-0.0367
55.372,13.836,-0.0368
55.392,13.841,-0.0368
55.412,13.846,-0.0369
55.432,13.851,-0.0368
55.452,13.856,-0.0367
55.472,13.861,-0.0365
55.492,13.866,-0.0366
55.512,13.871,-0.0367
55.532,13.876,-0.0368
55.552,13.881,-0.0369
55.572,13.886,-0.0369
55.592,13.891,-0.0368
55.612,13.896,-0.0367
55.632,13.901,-0.0369
55.652,13.906,-0.0369
55.672,13.911,-0.0368
55.692,13.916,-0.0366
55.712,13.921,-0.0366
55.732,13.926,-0.0366
55.752,13.9309,-0.0367
55.772,13.9359,-0.0366
55.792,13.941,-0.0367
55.812,13.946,-0.037
55.832,13.951,-0.0369
55.852,13.956,-0.0365
55.872,13.961,-0.0364
55.892,13.966,-0.0365
55.912,13.971,-0.0365
55.932,13.976,-0.0366
55.952,13.981,-0.0367
55.972,13.986,-0.0368
55.992,13.991,-0.0368
56.012,13.996,-0.0367
56.032,14.001,-0.0366
56.052,14.006,-0.0365
56.072,14.011,-0.0367
56.092,14.016,-0.0366
56.112,14.021,-0.0365
56.132,14.026,-0.0366
56.152,14.031,-0.0365
56.172,14.036,-0.0364
56.192,14.041,-0.0366
56.212,14.046,-0.0367
56.232,14.051,-0.0367
56.252,14.056,-0.0367
56.272,14.061,-0.0368
56.292,14.066,-0.0368
56.312,14.071,-0.0368
56.332,14.076,-0.037
56.352,14.081,-0.0371
56.372,14.086,-0.0371
56.392,14.091,-0.0368
56.412,14.096,-0.0368
56.432,14.101,-0.0367
56.452,14.106,-0.0367
56.472,14.111,-0.0368
56.492,14.116,-0.0368
56.512,14.121,-0.0369
56.532,14.126,-0.0369
56.552,14.131,-0.0367
56.572,14.136,-0.0368
56.592,14.141,-0.037
56.612,14.146,-0.0367
56.632,14.151,-0.0365
56.652,14.156,-0.0367
56.672,14.161,-0.0369
56.692,14.166,-0.0369
56.712,14.171,-0.0367
56.732,14.176,-0.0368
56.752,14.181,-0.0367
56.772,14.186,-0.0368
56.792,14.191,-0.0368
56.812,14.196,-0.0367
56.832,14.201,-0.0369
56.852,14.206,-0.0368
56.872,14.211,-0.0367
56.892,14.216,-0.0367
56.912,14.221,-0.0366
56.932,14.226,-0.0368
56.952,14.231,-0.037
56.972,14.236,-0.037
56.992,14.241,-0.0368
57.012,14.246,-0.0367
57.032,14.251,-0.0366
57.052,14.256,-0.0364
57.072,14.261,-0.0366
57.092,14.266,-0.0365
57.112,14.271,-0.0364
57.132,14.276,-0.0367
57.152,14.281,-0.0368
57.172,14.286,-0.0368
57.192,14.291,-0.0368
57.212,14.296,-0.0367
57.232,14.301,-0.0367
57.252,14.306,-0.0367
57.272,14.311,-0.0367
57.292,14.316,-0.0365
57.312,14.321,-0.0366
57.332,14.326,-0.0367
57.352,14.331,-0.0364
57.372,14.336,-0.0362
57.392,14.341,-0.0362
57.412,14.346,-0.0362
57.432,14.351,-0.0364
57.452,14.356,-0.0366
57.472,14.361,-0.0368
57.492,14.366,-0.0367
57.512,14.371,-0.0367
57.532,14.376,-0.0367
57.552,14.381,-0.0368
57.572,14.386,-0.0369
57.592,14.391,-0.0368
57.612,14.396,-0.0366
57.632,14.401,-0.0366
57.652,14.406,-0.0364
57.672,14.411,-0.0367
57.692,14.416,-0.0368
57.712,14.421,-0.0367
57.732,14.426,-0.0368
57.752,14.431,-0.0368
57.772,14.436,-0.0366
57.792,14.441,-0.0366
57.812,14.446,-0.0366
57.832,14.451,-0.0366
57.852,14.456,-0.0366
57.872,14.461,-0.0367
57.892,14.466,-0.0368
57.912,14.471,-0.0367
57.932,14.476,-0.0366
57.952,14.481,-0.0365
57.972,14.486,-0.0364
57.992,14.491,-0.0365
58.012,14.496,-0.0367
58.032,14.501,-0.0367
58.052,14.506,-0.0368
58.072,14.511,-0.0366
58.092,14.516,-0.0364
58.112,14.521,-0.0365
58.132,14.526,-0.0364
58.152,14.531,-0.0364
58.172,14.536,-0.0365
58.192,14.541,-0.0367
58.212,14.546,-0.0368
58.232,14.551,-0.0367
58.252,14.556,-0.0365
58.272,14.561,-0.0367
58.292,14.566,-0.0369
58.312,14.571,-0.037
58.332,14.576,-0.0367
58.352,14.581,-0.0366
58.372,14.586,-0.0367
58.392,14.591,-0.0369
58.412,14.596,-0.0369
58.432,14.601,-0.0367
58.452,14.606,-0.0364
58.472,14.611,-0.0364
58.492,14.616,-0.0366
58.512,14.621,-0.0366
58.532,14.626,-0.0365
58.552,14.631,-0.0365
58.572,14.636,-0.0366
58.592,14.641,-0.0368
58.612,14.646,-0.0366
58.632,14.651,-0.0366
58.652,14.656,-0.0366
58.672,14.661,-0.0367
58.692,14.666,-0.0371
58.712,14.671,-0.0369
58.732,14.676,-0.0367
58.752,14.681,-0.0366
58.772,14.686,-0.0365
58.792,14.691,-0.0366
58.812,14.696,-0.0366
58.832,14.701,-0.0365
58.852,14.706,-0.0367
58.872,14.711,-0.0368
58.892,14.716,-0.0368
58.912,14.721,-0.0368
58.932,14.726,-0.0368
58.952,14.731,-0.0368
58.972,14.736,-0.0369
58.992,14.741,-0.0367
59.012,14.746,-0.0368
59.032,14.751,-0.0366
59.052,14.756,-0.0367
59.072,14.761,-0.0367
59.092,14.766,-0.0367
59.112,14.7709,-0.0369
59.132,14.776,-0.0367
59.152,14.781,-0.0367
59.172,14.786,-0.0366
59.192,14.791,-0.0367
59.212,14.796,-0.0368
59.232,14.801,-0.0366
59.252,14.806,-0.0364
59.272,14.811,-0.0367
59.292,14.816,-0.0368
59.312,14.821,-0.0368
59.332,14.826,-0.0369
59.352,14.831,-0.0366
59.372,14.836,-0.0364
59.392,14.841,-0.0364
59.412,14.846,-0.0364
59.432,14.851,-0.0364
59.452,14.856,-0.0366
59.472,14.861,-0.0368
59.492,14.866,-0.0369
59.512,14.871,-0.0368
59.532,14.876,-0.0365
59.552,14.881,-0.0365
59.572,14.886,-0.0366
59.592,14.891,-0.0365
59.612,14.8959,-0.0366
59.632,14.9009,-0.0369
59.652,14.906,-0.037
59.672,14.911,-0.0366
59.692,14.916,-0.0366
59.712,14.921,-0.0368
59.732,14.926,-0.0369
59.752,14.931,-0.0366
59.772,14.936,-0.0365
59.792,14.941,-0.0365
59.812,14.946,-0.0367
59.832,14.951,-0.0368
59.852,14.956,-0.0368
59.872,14.961,-0.0366
59.892,14.966,-0.0366
59.912,14.971,-0.0367
59.932,14.976,-0.0367
59.952,14.981,-0.0368
59.972,14.986,-0.0367
59.992,14.991,-0.0366
60.012,14.996,-0.0366
60.032,15.001,-0.0366
60.052,15.006,-0.0366
60.072,15.011,-0.0365
60.092,15.016,-0.0365
60.112,15.021,-0.0364
60.132,15.026,-0.0367
60.152,15.031,-0.0366
60.172,15.036,-0.0365
60.192,15.041,-0.0365
60.212,15.046,-0.0366
60.232,15.051,-0.0366
60.252,15.056,-0.0367
60.272,15.061,-0.0365
60.292,15.066,-0.0365
60.312,15.071,-0.0367
60.332,15.076,-0.0366
60.352,15.081,-0.0367
60.372,15.086,-0.0367
60.392,15.091,-0.0365
60.412,15.096,-0.0367
60.432,15.101,-0.0366
60.452,15.106,-0.0366
60.472,15.111,-0.0366
60.492,15.116,-0.0366
60.512,15.121,-0.0367
60.532,15.126,-0.0368
60.552,15.131,-0.0367
60.572,15.136,-0.0365
60.592,15.141,-0.0365
60.612,15.146,-0.0365
60.632,15.151,-0.0365
60.652,15.156,-0.0363
60.672,15.161,-0.0364
60.692,15.166,-0.0365
60.712,15.171,-0.0367
60.732,15.176,-0.0368
60.752,15.181,-0.0368
60.772,15.186,-0.0365
60.792,15.191,-0.0365
60.812,15.196,-0.0364
60.832,15.201,-0.0364
60.852,15.206,-0.0365
60.872,15.211,-0.0366
60.892,15.216,-0.0367
60.912,15.221,-0.0367
60.932,15.226,-0.0367
60.952,15.231,-0.0367
60.972,15.236,-0.0367
60.992,15.241,-0.0366
61.012,15.246,-0.0367
61.032,15.251,-0.0368
61.052,15.256,-0.0368
61.072,15.261,-0.0366
61.092,15.266,-0.0368
61.112,15.271,-0.0367
61.132,15.276,-0.0365
61.152,15.281,-0.0366
61.172,15.286,-0.0367
61.192,15.291,-0.0365
61.212,15.296,-0.0364
61.232,15.301,-0.0367
61.252,15.306,-0.037
61.272,15.311,-0.0368
61.292,15.316,-0.0365
61.312,15.321,-0.0364
61.332,15.326,-0.0365
61.352,15.331,-0.0366
61.372,15.336,-0.0366
61.392,15.341,-0.0366
61.412,15.346,-0.0365
61.432,15.351,-0.0366
61.452,15.356,-0.0364
61.472,15.361,-0.0364
61.492,15.366,-0.0364
61.512,15.371,-0.0366
61.532,15.376,-0.0368
61.552,15.381,-0.0367
61.572,15.386,-0.0369
61.592,15.391,-0.0367
61.612,15.396,-0.0368
61.632,15.401,-0.0367
61.652,15.406,-0.0366
61.672,15.411,-0.0369
61.692,15.416,-0.0367
61.712,15.421,-0.0365
61.732,15.426,-0.0366
61.752,15.431,-0.0367
61.772,15.436,-0.0367
61.792,15.441,-0.0367
61.812,15.446,-0.0367
61.822,15.4485,-0.0366
